 full2D RR spectrum in 10**-30 cm**2 sr**-1 molec**-1
      vib freq    incident freq      dsigma/dOmega
       0.0000      32262.1600         0.12066E+05
       0.0000      32302.4877         0.12189E+05
       0.0000      32342.8154         0.12314E+05
       0.0000      32383.1431         0.12441E+05
       0.0000      32423.4708         0.12569E+05
       0.0000      32463.7985         0.12698E+05
       0.0000      32504.1262         0.12830E+05
       0.0000      32544.4539         0.12963E+05
       0.0000      32584.7816         0.13097E+05
       0.0000      32625.1093         0.13233E+05
       0.0000      32665.4370         0.13371E+05
       0.0000      32705.7647         0.13511E+05
       0.0000      32746.0924         0.13653E+05
       0.0000      32786.4201         0.13796E+05
       0.0000      32826.7478         0.13941E+05
       0.0000      32867.0755         0.14088E+05
       0.0000      32907.4032         0.14237E+05
       0.0000      32947.7309         0.14388E+05
       0.0000      32988.0586         0.14540E+05
       0.0000      33028.3863         0.14695E+05
       0.0000      33068.7140         0.14852E+05
       0.0000      33109.0417         0.15010E+05
       0.0000      33149.3694         0.15171E+05
       0.0000      33189.6971         0.15334E+05
       0.0000      33230.0248         0.15499E+05
       0.0000      33270.3525         0.15666E+05
       0.0000      33310.6802         0.15836E+05
       0.0000      33351.0079         0.16008E+05
       0.0000      33391.3356         0.16182E+05
       0.0000      33431.6633         0.16358E+05
       0.0000      33471.9910         0.16537E+05
       0.0000      33512.3187         0.16718E+05
       0.0000      33552.6464         0.16901E+05
       0.0000      33592.9741         0.17087E+05
       0.0000      33633.3018         0.17276E+05
       0.0000      33673.6295         0.17467E+05
       0.0000      33713.9572         0.17660E+05
       0.0000      33754.2849         0.17857E+05
       0.0000      33794.6126         0.18056E+05
       0.0000      33834.9403         0.18258E+05
       0.0000      33875.2680         0.18462E+05
       0.0000      33915.5957         0.18670E+05
       0.0000      33955.9234         0.18880E+05
       0.0000      33996.2511         0.19093E+05
       0.0000      34036.5788         0.19310E+05
       0.0000      34076.9065         0.19529E+05
       0.0000      34117.2342         0.19751E+05
       0.0000      34157.5619         0.19977E+05
       0.0000      34197.8896         0.20206E+05
       0.0000      34238.2173         0.20438E+05
       0.0000      34278.5450         0.20673E+05
       0.0000      34318.8727         0.20912E+05
       0.0000      34359.2004         0.21154E+05
       0.0000      34399.5281         0.21400E+05
       0.0000      34439.8558         0.21649E+05
       0.0000      34480.1835         0.21902E+05
       0.0000      34520.5112         0.22159E+05
       0.0000      34560.8389         0.22420E+05
       0.0000      34601.1666         0.22684E+05
       0.0000      34641.4943         0.22952E+05
       0.0000      34681.8220         0.23224E+05
       0.0000      34722.1497         0.23501E+05
       0.0000      34762.4774         0.23781E+05
       0.0000      34802.8051         0.24066E+05
       0.0000      34843.1328         0.24355E+05
       0.0000      34883.4605         0.24649E+05
       0.0000      34923.7882         0.24946E+05
       0.0000      34964.1159         0.25249E+05
       0.0000      35004.4436         0.25556E+05
       0.0000      35044.7713         0.25868E+05
       0.0000      35085.0990         0.26185E+05
       0.0000      35125.4267         0.26506E+05
       0.0000      35165.7544         0.26833E+05
       0.0000      35206.0821         0.27165E+05
       0.0000      35246.4098         0.27502E+05
       0.0000      35286.7375         0.27844E+05
       0.0000      35327.0652         0.28192E+05
       0.0000      35367.3929         0.28546E+05
       0.0000      35407.7206         0.28905E+05
       0.0000      35448.0483         0.29270E+05
       0.0000      35488.3760         0.29640E+05
       0.0000      35528.7037         0.30017E+05
       0.0000      35569.0314         0.30400E+05
       0.0000      35609.3591         0.30790E+05
       0.0000      35649.6868         0.31185E+05
       0.0000      35690.0145         0.31588E+05
       0.0000      35730.3422         0.31997E+05
       0.0000      35770.6699         0.32412E+05
       0.0000      35810.9976         0.32835E+05
       0.0000      35851.3253         0.33265E+05
       0.0000      35891.6530         0.33702E+05
       0.0000      35931.9807         0.34147E+05
       0.0000      35972.3084         0.34599E+05
       0.0000      36012.6361         0.35060E+05
       0.0000      36052.9638         0.35528E+05
       0.0000      36093.2915         0.36004E+05
       0.0000      36133.6192         0.36488E+05
       0.0000      36173.9469         0.36981E+05
       0.0000      36214.2746         0.37483E+05
       0.0000      36254.6023         0.37994E+05
       0.0000      36294.9300         0.38514E+05
       0.0000      36335.2577         0.39043E+05
       0.0000      36375.5854         0.39582E+05
       0.0000      36415.9131         0.40130E+05
       0.0000      36456.2408         0.40688E+05
       0.0000      36496.5685         0.41257E+05
       0.0000      36536.8962         0.41836E+05
       0.0000      36577.2239         0.42426E+05
       0.0000      36617.5516         0.43027E+05
       0.0000      36657.8793         0.43639E+05
       0.0000      36698.2070         0.44263E+05
       0.0000      36738.5347         0.44898E+05
       0.0000      36778.8624         0.45546E+05
       0.0000      36819.1901         0.46206E+05
       0.0000      36859.5178         0.46878E+05
       0.0000      36899.8455         0.47564E+05
       0.0000      36940.1732         0.48263E+05
       0.0000      36980.5009         0.48976E+05
       0.0000      37020.8286         0.49703E+05
       0.0000      37061.1563         0.50445E+05
       0.0000      37101.4840         0.51201E+05
       0.0000      37141.8117         0.51972E+05
       0.0000      37182.1394         0.52760E+05
       0.0000      37222.4671         0.53563E+05
       0.0000      37262.7948         0.54382E+05
       0.0000      37303.1225         0.55219E+05
       0.0000      37343.4502         0.56073E+05
       0.0000      37383.7779         0.56945E+05
       0.0000      37424.1056         0.57835E+05
       0.0000      37464.4333         0.58744E+05
       0.0000      37504.7610         0.59672E+05
       0.0000      37545.0887         0.60621E+05
       0.0000      37585.4164         0.61590E+05
       0.0000      37625.7441         0.62580E+05
       0.0000      37666.0718         0.63592E+05
       0.0000      37706.3995         0.64626E+05
       0.0000      37746.7272         0.65683E+05
       0.0000      37787.0549         0.66764E+05
       0.0000      37827.3826         0.67870E+05
       0.0000      37867.7103         0.69001E+05
       0.0000      37908.0380         0.70157E+05
       0.0000      37948.3657         0.71341E+05
       0.0000      37988.6934         0.72552E+05
       0.0000      38029.0211         0.73792E+05
       0.0000      38069.3488         0.75061E+05
       0.0000      38109.6765         0.76360E+05
       0.0000      38150.0042         0.77691E+05
       0.0000      38190.3319         0.79054E+05
       0.0000      38230.6596         0.80450E+05
       0.0000      38270.9873         0.81881E+05
       0.0000      38311.3150         0.83348E+05
       0.0000      38351.6427         0.84851E+05
       0.0000      38391.9704         0.86393E+05
       0.0000      38432.2981         0.87974E+05
       0.0000      38472.6258         0.89597E+05
       0.0000      38512.9535         0.91261E+05
       0.0000      38553.2812         0.92969E+05
       0.0000      38593.6089         0.94723E+05
       0.0000      38633.9366         0.96524E+05
       0.0000      38674.2643         0.98374E+05
       0.0000      38714.5920         0.10027E+06
       0.0000      38754.9197         0.10223E+06
       0.0000      38795.2474         0.10423E+06
       0.0000      38835.5751         0.10630E+06
       0.0000      38875.9028         0.10842E+06
       0.0000      38916.2305         0.11061E+06
       0.0000      38956.5582         0.11286E+06
       0.0000      38996.8859         0.11517E+06
       0.0000      39037.2136         0.11755E+06
       0.0000      39077.5413         0.12001E+06
       0.0000      39117.8690         0.12254E+06
       0.0000      39158.1967         0.12515E+06
       0.0000      39198.5244         0.12784E+06
       0.0000      39238.8521         0.13062E+06
       0.0000      39279.1798         0.13348E+06
       0.0000      39319.5075         0.13644E+06
       0.0000      39359.8352         0.13949E+06
       0.0000      39400.1629         0.14265E+06
       0.0000      39440.4906         0.14591E+06
       0.0000      39480.8183         0.14929E+06
       0.0000      39521.1460         0.15278E+06
       0.0000      39561.4737         0.15640E+06
       0.0000      39601.8014         0.16014E+06
       0.0000      39642.1291         0.16402E+06
       0.0000      39682.4568         0.16805E+06
       0.0000      39722.7845         0.17222E+06
       0.0000      39763.1122         0.17655E+06
       0.0000      39803.4399         0.18105E+06
       0.0000      39843.7676         0.18572E+06
       0.0000      39884.0953         0.19059E+06
       0.0000      39924.4230         0.19564E+06
       0.0000      39964.7507         0.20091E+06
       0.0000      40005.0784         0.20640E+06
       0.0000      40045.4061         0.21212E+06
       0.0000      40085.7338         0.21809E+06
       0.0000      40126.0615         0.22433E+06
       0.0000      40166.3892         0.23084E+06
       0.0000      40206.7169         0.23766E+06
       0.0000      40247.0446         0.24479E+06
       0.0000      40287.3723         0.25227E+06
       0.0000      40327.7000         0.26011E+06
       0.0000      40368.0277         0.26834E+06
       0.0000      40408.3554         0.27699E+06
       0.0000      40448.6831         0.28609E+06
       0.0000      40489.0108         0.29567E+06
       0.0000      40529.3385         0.30577E+06
       0.0000      40569.6662         0.31643E+06
       0.0000      40609.9939         0.32768E+06
       0.0000      40650.3216         0.33959E+06
       0.0000      40690.6493         0.35219E+06
       0.0000      40730.9770         0.36555E+06
       0.0000      40771.3047         0.37972E+06
       0.0000      40811.6324         0.39477E+06
       0.0000      40851.9601         0.41076E+06
       0.0000      40892.2878         0.42777E+06
       0.0000      40932.6155         0.44587E+06
       0.0000      40972.9432         0.46513E+06
       0.0000      41013.2709         0.48562E+06
       0.0000      41053.5986         0.50740E+06
       0.0000      41093.9263         0.53051E+06
       0.0000      41134.2540         0.55495E+06
       0.0000      41174.5817         0.58071E+06
       0.0000      41214.9094         0.60767E+06
       0.0000      41255.2371         0.63563E+06
       0.0000      41295.5648         0.66425E+06
       0.0000      41335.8925         0.69301E+06
       0.0000      41376.2202         0.72115E+06
       0.0000      41416.5479         0.74765E+06
       0.0000      41456.8756         0.77123E+06
       0.0000      41497.2033         0.79038E+06
       0.0000      41537.5310         0.80354E+06
       0.0000      41577.8587         0.80937E+06
       0.0000      41618.1864         0.80707E+06
       0.0000      41658.5141         0.79671E+06
       0.0000      41698.8418         0.77944E+06
       0.0000      41739.1695         0.75738E+06
       0.0000      41779.4972         0.73330E+06
       0.0000      41819.8249         0.71004E+06
       0.0000      41860.1526         0.69003E+06
       0.0000      41900.4803         0.67497E+06
       0.0000      41940.8080         0.66561E+06
       0.0000      41981.1357         0.66197E+06
       0.0000      42021.4634         0.66337E+06
       0.0000      42061.7911         0.66873E+06
       0.0000      42102.1188         0.67673E+06
       0.0000      42142.4465         0.68605E+06
       0.0000      42182.7742         0.69550E+06
       0.0000      42223.1019         0.70416E+06
       0.0000      42263.4296         0.71146E+06
       0.0000      42303.7573         0.71714E+06
       0.0000      42344.0850         0.72127E+06
       0.0000      42384.4127         0.72416E+06
       0.0000      42424.7404         0.72633E+06
       0.0000      42465.0681         0.72837E+06
       0.0000      42505.3958         0.73089E+06
       0.0000      42545.7235         0.73439E+06
       0.0000      42586.0512         0.73922E+06
       0.0000      42626.3789         0.74566E+06
       0.0000      42666.7066         0.75389E+06
       0.0000      42707.0343         0.76410E+06
       0.0000      42747.3620         0.77655E+06
       0.0000      42787.6897         0.79147E+06
       0.0000      42828.0174         0.80908E+06
       0.0000      42868.3451         0.82947E+06
       0.0000      42908.6728         0.85261E+06
       0.0000      42949.0005         0.87827E+06
       0.0000      42989.3282         0.90612E+06
       0.0000      43029.6559         0.93562E+06
       0.0000      43069.9836         0.96613E+06
       0.0000      43110.3113         0.99684E+06
       0.0000      43150.6390         0.10268E+07
       0.0000      43190.9667         0.10552E+07
       0.0000      43231.2944         0.10811E+07
       0.0000      43271.6221         0.11039E+07
       0.0000      43311.9498         0.11231E+07
       0.0000      43352.2775         0.11387E+07
       0.0000      43392.6052         0.11509E+07
       0.0000      43432.9329         0.11602E+07
       0.0000      43473.2606         0.11677E+07
       0.0000      43513.5883         0.11747E+07
       0.0000      43553.9160         0.11826E+07
       0.0000      43594.2437         0.11925E+07
       0.0000      43634.5714         0.12049E+07
       0.0000      43674.8991         0.12196E+07
       0.0000      43715.2268         0.12355E+07
       0.0000      43755.5545         0.12509E+07
       0.0000      43795.8822         0.12637E+07
       0.0000      43836.2099         0.12719E+07
       0.0000      43876.5376         0.12737E+07
       0.0000      43916.8653         0.12686E+07
       0.0000      43957.1930         0.12566E+07
       0.0000      43997.5207         0.12392E+07
       0.0000      44037.8484         0.12182E+07
       0.0000      44078.1761         0.11955E+07
       0.0000      44118.5038         0.11733E+07
       0.0000      44158.8315         0.11529E+07
       0.0000      44199.1592         0.11356E+07
       0.0000      44239.4869         0.11217E+07
       0.0000      44279.8146         0.11113E+07
       0.0000      44320.1423         0.11041E+07
       0.0000      44360.4700         0.10994E+07
       0.0000      44400.7977         0.10966E+07
       0.0000      44441.1254         0.10948E+07
       0.0000      44481.4531         0.10936E+07
       0.0000      44521.7808         0.10924E+07
       0.0000      44562.1085         0.10912E+07
       0.0000      44602.4362         0.10899E+07
       0.0000      44642.7639         0.10887E+07
       0.0000      44683.0916         0.10878E+07
       0.0000      44723.4193         0.10874E+07
       0.0000      44763.7470         0.10876E+07
       0.0000      44804.0747         0.10885E+07
       0.0000      44844.4024         0.10900E+07
       0.0000      44884.7301         0.10919E+07
       0.0000      44925.0578         0.10943E+07
       0.0000      44965.3855         0.10968E+07
       0.0000      45005.7132         0.10997E+07
       0.0000      45046.0409         0.11029E+07
       0.0000      45086.3686         0.11067E+07
       0.0000      45126.6963         0.11112E+07
       0.0000      45167.0240         0.11166E+07
       0.0000      45207.3517         0.11231E+07
       0.0000      45247.6794         0.11308E+07
       0.0000      45288.0071         0.11397E+07
       0.0000      45328.3348         0.11496E+07
       0.0000      45368.6625         0.11604E+07
       0.0000      45408.9902         0.11715E+07
       0.0000      45449.3179         0.11823E+07
       0.0000      45489.6456         0.11922E+07
       0.0000      45529.9733         0.12005E+07
       0.0000      45570.3010         0.12065E+07
       0.0000      45610.6287         0.12098E+07
       0.0000      45650.9564         0.12102E+07
       0.0000      45691.2841         0.12079E+07
       0.0000      45731.6118         0.12034E+07
       0.0000      45771.9395         0.11976E+07
       0.0000      45812.2672         0.11914E+07
       0.0000      45852.5949         0.11856E+07
       0.0000      45892.9226         0.11809E+07
       0.0000      45933.2503         0.11774E+07
       0.0000      45973.5780         0.11750E+07
       0.0000      46013.9057         0.11731E+07
       0.0000      46054.2334         0.11711E+07
       0.0000      46094.5611         0.11681E+07
       0.0000      46134.8888         0.11636E+07
       0.0000      46175.2165         0.11572E+07
       0.0000      46215.5442         0.11488E+07
       0.0000      46255.8719         0.11386E+07
       0.0000      46296.1996         0.11272E+07
       0.0000      46336.5273         0.11150E+07
       0.0000      46376.8550         0.11026E+07
       0.0000      46417.1827         0.10904E+07
       0.0000      46457.5104         0.10789E+07
       0.0000      46497.8381         0.10683E+07
       0.0000      46538.1658         0.10586E+07
       0.0000      46578.4935         0.10498E+07
       0.0000      46618.8212         0.10417E+07
       0.0000      46659.1489         0.10342E+07
       0.0000      46699.4766         0.10272E+07
       0.0000      46739.8043         0.10203E+07
       0.0000      46780.1320         0.10137E+07
       0.0000      46820.4597         0.10072E+07
       0.0000      46860.7874         0.10010E+07
       0.0000      46901.1151         0.99500E+06
       0.0000      46941.4428         0.98939E+06
       0.0000      46981.7705         0.98419E+06
       0.0000      47022.0982         0.97940E+06
       0.0000      47062.4259         0.97501E+06
       0.0000      47102.7536         0.97092E+06
       0.0000      47143.0813         0.96701E+06
       0.0000      47183.4090         0.96318E+06
       0.0000      47223.7367         0.95932E+06
       0.0000      47264.0644         0.95534E+06
       0.0000      47304.3921         0.95124E+06
       0.0000      47344.7198         0.94696E+06
       0.0000      47385.0475         0.94258E+06
       0.0000      47425.3752         0.93813E+06
       0.0000      47465.7029         0.93372E+06
       0.0000      47506.0306         0.92947E+06
       0.0000      47546.3583         0.92548E+06
       0.0000      47586.6860         0.92180E+06
       0.0000      47627.0137         0.91845E+06
       0.0000      47667.3414         0.91536E+06
       0.0000      47707.6691         0.91237E+06
       0.0000      47747.9968         0.90930E+06
       0.0000      47788.3245         0.90593E+06
       0.0000      47828.6522         0.90201E+06
       0.0000      47868.9799         0.89739E+06
       0.0000      47909.3076         0.89199E+06
       0.0000      47949.6353         0.88582E+06
       0.0000      47989.9630         0.87903E+06
       0.0000      48030.2907         0.87183E+06
       0.0000      48070.6184         0.86443E+06
       0.0000      48110.9461         0.85708E+06
       0.0000      48151.2738         0.84991E+06
       0.0000      48191.6015         0.84302E+06
       0.0000      48231.9292         0.83639E+06
